Wavelength(nm),PHAN
341.409,1.105
341.79,0.895
342.17,0.826
342.55,0.81
342.931,0.804
343.311,0.791
343.691,0.786
344.071,0.785
344.451,0.791
344.831,0.784
345.211,0.791
345.591,0.794
345.971,0.791
346.351,0.79
346.731,0.788
347.111,0.788
347.49,0.79
347.87,0.783
348.25,0.777
348.629,0.768
349.009,0.763
349.389,0.752
349.768,0.749
350.147,0.744
350.527,0.739
350.906,0.731
351.286,0.725
351.665,0.718
352.044,0.71
352.423,0.707
352.802,0.7
353.182,0.696
353.561,0.69
353.94,0.685
354.319,0.682
354.698,0.679
355.077,0.672
355.455,0.671
355.834,0.665
356.213,0.66
356.592,0.657
356.971,0.654
357.349,0.648
357.728,0.64
358.106,0.632
358.485,0.626
358.863,0.622
359.242,0.616
359.62,0.611
359.999,0.605
360.377,0.6
360.755,0.594
361.133,0.588
361.512,0.585
361.89,0.58
362.268,0.575
362.646,0.57
363.024,0.565
363.402,0.562
363.78,0.558
364.158,0.554
364.536,0.549
364.914,0.547
365.291,0.544
365.669,0.541
366.047,0.539
366.424,0.537
366.802,0.536
367.18,0.534
367.557,0.533
367.935,0.531
368.312,0.53
368.689,0.529
369.067,0.529
369.444,0.529
369.821,0.529
370.198,0.529
370.576,0.528
370.953,0.528
371.33,0.529
371.707,0.529
372.084,0.53
372.461,0.531
372.838,0.531
373.215,0.532
373.592,0.534
373.968,0.534
374.345,0.535
374.722,0.536
375.098,0.538
375.475,0.538
375.852,0.54
376.228,0.541
376.605,0.543
376.981,0.543
377.358,0.544
377.734,0.546
378.11,0.547
378.487,0.548
378.863,0.549
379.239,0.551
379.615,0.552
379.991,0.554
380.367,0.555
380.743,0.557
381.119,0.558
381.495,0.56
381.871,0.561
382.247,0.563
382.623,0.565
382.999,0.566
383.374,0.568
383.75,0.57
384.126,0.572
384.501,0.574
384.877,0.576
385.252,0.578
385.628,0.58
386.003,0.583
386.379,0.585
386.754,0.588
387.129,0.591
387.505,0.593
387.88,0.596
388.255,0.6
388.63,0.603
389.005,0.607
389.38,0.611
389.755,0.615
390.13,0.619
390.505,0.623
390.88,0.628
391.255,0.632
391.63,0.636
392.005,0.641
392.379,0.646
392.754,0.651
393.129,0.656
393.503,0.661
393.878,0.667
394.252,0.673
394.627,0.679
395.001,0.686
395.375,0.692
395.75,0.698
396.124,0.705
396.498,0.711
396.872,0.717
397.247,0.724
397.621,0.731
397.995,0.738
398.369,0.745
398.743,0.752
399.117,0.759
399.491,0.767
399.864,0.774
400.238,0.782
400.612,0.789
400.986,0.797
401.359,0.804
401.733,0.812
402.107,0.819
402.48,0.827
402.854,0.835
403.227,0.842
403.601,0.85
403.974,0.857
404.347,0.864
404.721,0.871
405.094,0.879
405.467,0.886
405.84,0.892
406.213,0.9
406.586,0.907
406.959,0.914
407.332,0.921
407.705,0.928
408.078,0.935
408.451,0.942
408.824,0.949
409.197,0.956
409.569,0.963
409.942,0.969
410.315,0.976
410.687,0.982
411.06,0.988
411.432,0.995
411.805,1.002
412.177,1.008
412.55,1.014
412.922,1.021
413.294,1.027
413.667,1.034
414.039,1.04
414.411,1.047
414.783,1.053
415.155,1.06
415.527,1.066
415.899,1.072
416.271,1.079
416.643,1.086
417.015,1.093
417.387,1.1
417.759,1.106
418.13,1.113
418.502,1.12
418.874,1.127
419.245,1.134
419.617,1.141
419.988,1.149
420.36,1.157
420.731,1.164
421.103,1.172
421.474,1.18
421.845,1.188
422.217,1.196
422.588,1.204
422.959,1.212
423.33,1.221
423.701,1.229
424.072,1.238
424.443,1.246
424.814,1.255
425.185,1.264
425.556,1.272
425.927,1.281
426.298,1.29
426.668,1.299
427.039,1.307
427.41,1.316
427.78,1.325
428.151,1.334
428.521,1.342
428.892,1.351
429.262,1.359
429.633,1.368
430.003,1.377
430.373,1.385
430.744,1.393
431.114,1.401
431.484,1.409
431.854,1.417
432.224,1.424
432.594,1.432
432.964,1.44
433.334,1.447
433.704,1.455
434.074,1.461
434.444,1.468
434.814,1.475
435.183,1.481
435.553,1.487
435.923,1.493
436.292,1.499
436.662,1.504
437.031,1.51
437.401,1.514
437.77,1.519
438.14,1.523
438.509,1.528
438.878,1.531
439.248,1.535
439.617,1.538
439.986,1.541
440.355,1.544
440.724,1.547
441.093,1.55
441.462,1.552
441.831,1.554
442.2,1.556
442.569,1.557
442.938,1.558
443.307,1.559
443.675,1.56
444.044,1.561
444.413,1.562
444.781,1.562
445.15,1.562
445.518,1.561
445.887,1.562
446.255,1.561
446.624,1.559
446.992,1.558
447.36,1.556
447.728,1.554
448.097,1.551
448.465,1.548
448.833,1.545
449.201,1.542
449.569,1.539
449.937,1.535
450.305,1.53
450.673,1.526
451.041,1.521
451.409,1.515
451.776,1.511
452.144,1.505
452.512,1.499
452.879,1.493
453.247,1.488
453.614,1.481
453.982,1.475
454.349,1.469
454.717,1.462
455.084,1.456
455.452,1.449
455.819,1.442
456.186,1.435
456.553,1.428
456.92,1.422
457.288,1.416
457.655,1.409
458.022,1.403
458.389,1.397
458.756,1.391
459.122,1.385
459.489,1.378
459.856,1.372
460.223,1.366
460.59,1.36
460.956,1.354
461.323,1.349
461.689,1.343
462.056,1.338
462.422,1.332
462.789,1.327
463.155,1.322
463.522,1.317
463.888,1.313
464.254,1.308
464.62,1.304
464.987,1.3
465.353,1.296
465.719,1.292
466.085,1.289
466.451,1.286
466.817,1.283
467.183,1.28
467.549,1.277
467.915,1.275
468.28,1.272
468.646,1.27
469.012,1.268
469.377,1.267
469.743,1.265
470.109,1.264
470.474,1.263
470.84,1.263
471.205,1.262
471.57,1.262
471.936,1.262
472.301,1.261
472.666,1.261
473.031,1.261
473.397,1.262
473.762,1.262
474.127,1.263
474.492,1.264
474.857,1.265
475.222,1.266
475.587,1.267
475.952,1.268
476.316,1.269
476.681,1.27
477.046,1.271
477.411,1.273
477.775,1.273
478.14,1.275
478.504,1.276
478.869,1.276
479.233,1.277
479.598,1.278
479.962,1.278
480.326,1.279
480.691,1.279
481.055,1.279
481.419,1.278
481.783,1.277
482.147,1.277
482.511,1.276
482.875,1.275
483.239,1.273
483.603,1.272
483.967,1.269
484.331,1.267
484.695,1.264
485.058,1.262
485.422,1.258
485.786,1.255
486.149,1.251
486.513,1.247
486.877,1.243
487.24,1.239
487.603,1.234
487.967,1.229
488.33,1.224
488.693,1.219
489.057,1.214
489.42,1.208
489.783,1.202
490.146,1.196
490.509,1.19
490.872,1.184
491.235,1.178
491.598,1.171
491.961,1.165
492.324,1.158
492.687,1.152
493.05,1.145
493.412,1.139
493.775,1.132
494.138,1.125
494.5,1.118
494.863,1.111
495.225,1.105
495.588,1.098
495.95,1.091
496.312,1.084
496.675,1.077
497.037,1.07
497.399,1.063
497.761,1.056
498.123,1.049
498.486,1.042
498.848,1.035
499.21,1.028
499.572,1.021
499.933,1.014
500.295,1.007
500.657,1
501.019,0.993
501.381,0.985
501.742,0.978
502.104,0.971
502.466,0.963
502.827,0.956
503.189,0.948
503.55,0.941
503.911,0.934
504.273,0.926
504.634,0.918
504.995,0.911
505.357,0.903
505.718,0.895
506.079,0.887
506.44,0.879
506.801,0.87
507.162,0.862
507.523,0.854
507.884,0.845
508.245,0.836
508.606,0.827
508.967,0.819
509.327,0.81
509.688,0.8
510.049,0.791
510.409,0.782
510.77,0.772
511.13,0.763
511.491,0.753
511.851,0.744
512.212,0.734
512.572,0.724
512.932,0.714
513.293,0.704
513.653,0.694
514.013,0.684
514.373,0.674
514.733,0.664
515.093,0.654
515.453,0.644
515.813,0.634
516.173,0.624
516.533,0.614
516.892,0.604
517.252,0.595
517.612,0.585
517.972,0.575
518.331,0.565
518.691,0.556
519.05,0.546
519.41,0.537
519.769,0.527
520.129,0.518
520.488,0.509
520.847,0.5
521.206,0.491
521.566,0.482
521.925,0.473
522.284,0.465
522.643,0.457
523.002,0.449
523.361,0.441
523.72,0.433
524.079,0.426
524.438,0.418
524.797,0.411
525.155,0.404
525.514,0.397
525.873,0.39
526.231,0.383
526.59,0.377
526.948,0.37
527.307,0.364
527.665,0.358
528.024,0.353
528.382,0.347
528.74,0.342
529.099,0.336
529.457,0.331
529.815,0.326
530.173,0.321
530.531,0.317
530.889,0.313
531.247,0.308
531.605,0.304
531.963,0.3
532.321,0.296
532.679,0.293
533.036,0.289
533.394,0.286
533.752,0.283
534.109,0.28
534.467,0.277
534.824,0.274
535.182,0.271
535.539,0.269
535.897,0.266
536.254,0.264
536.611,0.262
536.969,0.26
537.326,0.258
537.683,0.255
538.04,0.254
538.397,0.252
538.754,0.25
539.111,0.249
539.468,0.247
539.825,0.246
540.182,0.245
540.539,0.244
540.895,0.243
541.252,0.242
541.609,0.241
541.965,0.24
542.322,0.239
542.678,0.239
543.035,0.238
543.391,0.238
543.748,0.238
544.104,0.237
544.46,0.237
544.817,0.237
545.173,0.237
545.529,0.237
545.885,0.237
546.241,0.237
546.597,0.237
546.953,0.238
547.309,0.238
547.665,0.239
548.021,0.239
548.377,0.239
548.732,0.24
549.088,0.241
549.444,0.241
549.799,0.242
550.155,0.243
550.51,0.243
550.866,0.244
551.221,0.245
551.577,0.246
551.932,0.247
552.287,0.248
552.643,0.249
552.998,0.25
553.353,0.252
553.708,0.253
554.063,0.254
554.418,0.255
554.773,0.257
555.128,0.258
555.483,0.259
555.838,0.261
556.192,0.262
556.547,0.264
556.902,0.265
557.257,0.267
557.611,0.269
557.966,0.27
558.32,0.272
558.675,0.274
559.029,0.275
559.383,0.277
559.738,0.278
560.092,0.28
560.446,0.282
560.8,0.283
561.155,0.285
561.509,0.287
561.863,0.288
562.217,0.29
562.571,0.292
562.925,0.294
563.278,0.295
563.632,0.297
563.986,0.299
564.34,0.301
564.693,0.303
565.047,0.304
565.401,0.306
565.754,0.308
566.108,0.31
566.461,0.312
566.815,0.313
567.168,0.315
567.521,0.317
567.874,0.319
568.228,0.32
568.581,0.322
568.934,0.324
569.287,0.326
569.64,0.328
569.993,0.33
570.346,0.331
570.699,0.333
571.052,0.335
571.405,0.337
571.757,0.338
572.11,0.34
572.463,0.342
572.815,0.343
573.168,0.345
573.52,0.347
573.873,0.348
574.225,0.35
574.578,0.352
574.93,0.354
575.282,0.355
575.635,0.357
575.987,0.359
576.339,0.361
576.691,0.363
577.043,0.364
577.395,0.366
577.747,0.368
578.099,0.37
578.451,0.372
578.803,0.373
579.154,0.375
579.506,0.377
579.858,0.38
580.209,0.382
580.561,0.384
580.913,0.386
581.264,0.388
581.616,0.391
581.967,0.393
582.318,0.396
582.67,0.398
583.021,0.4
583.372,0.403
583.723,0.406
584.074,0.408
584.426,0.411
584.777,0.414
585.128,0.417
585.479,0.42
585.829,0.423
586.18,0.427
586.531,0.43
586.882,0.433
587.233,0.437
587.583,0.44
587.934,0.444
588.284,0.448
588.635,0.452
588.985,0.456
589.336,0.46
589.686,0.464
590.037,0.468
590.387,0.473
590.737,0.477
591.087,0.482
591.437,0.487
591.788,0.492
592.138,0.497
592.488,0.502
592.838,0.508
593.188,0.513
593.537,0.519
593.887,0.524
594.237,0.53
594.587,0.536
594.936,0.542
595.286,0.548
595.636,0.554
595.985,0.56
596.335,0.567
596.684,0.573
597.034,0.58
597.383,0.587
597.732,0.594
598.081,0.601
598.431,0.608
598.78,0.615
599.129,0.622
599.478,0.63
599.827,0.637
600.176,0.644
600.525,0.652
600.874,0.659
601.223,0.667
601.572,0.675
601.92,0.682
602.269,0.69
602.618,0.698
602.966,0.705
603.315,0.713
603.663,0.721
604.012,0.729
604.36,0.736
604.709,0.744
605.057,0.751
605.405,0.759
605.753,0.766
606.102,0.774
606.45,0.781
606.798,0.788
607.146,0.795
607.494,0.802
607.842,0.809
608.19,0.816
608.538,0.822
608.885,0.829
609.233,0.835
609.581,0.841
609.929,0.847
610.276,0.853
610.624,0.859
610.971,0.864
611.319,0.87
611.666,0.875
612.014,0.879
612.361,0.884
612.708,0.889
613.056,0.893
613.403,0.897
613.75,0.901
614.097,0.905
614.444,0.908
614.791,0.912
615.138,0.915
615.485,0.917
615.832,0.92
616.179,0.923
616.525,0.925
616.872,0.927
617.219,0.929
617.566,0.931
617.912,0.933
618.259,0.934
618.605,0.936
618.952,0.937
619.298,0.938
619.644,0.939
619.991,0.94
620.337,0.941
620.683,0.942
621.029,0.943
621.375,0.944
621.721,0.944
622.067,0.944
622.413,0.944
622.759,0.945
623.105,0.945
623.451,0.945
623.797,0.945
624.143,0.945
624.488,0.945
624.834,0.945
625.18,0.944
625.525,0.944
625.871,0.944
626.216,0.944
626.561,0.943
626.907,0.943
627.252,0.943
627.597,0.943
627.943,0.943
628.288,0.943
628.633,0.943
628.978,0.943
629.323,0.943
629.668,0.943
630.013,0.944
630.358,0.944
630.703,0.944
631.047,0.945
631.392,0.945
631.737,0.946
632.082,0.947
632.426,0.948
632.771,0.948
633.115,0.949
633.46,0.95
633.804,0.951
634.148,0.952
634.493,0.954
634.837,0.955
635.181,0.957
635.525,0.959
635.87,0.961
636.214,0.963
636.558,0.965
636.902,0.968
637.246,0.971
637.589,0.974
637.933,0.977
638.277,0.98
638.621,0.984
638.965,0.987
639.308,0.991
639.652,0.996
639.995,1
640.339,1.005
640.682,1.01
641.026,1.015
641.369,1.02
641.712,1.026
642.056,1.032
642.399,1.038
642.742,1.044
643.085,1.051
643.428,1.058
643.771,1.065
644.114,1.072
644.457,1.079
644.8,1.087
645.143,1.095
645.486,1.104
645.828,1.113
646.171,1.122
646.514,1.131
646.856,1.141
647.199,1.151
647.541,1.162
647.884,1.172
648.226,1.184
648.569,1.195
648.911,1.207
649.253,1.219
649.596,1.231
649.938,1.244
650.28,1.257
650.622,1.27
650.964,1.284
651.306,1.298
651.648,1.311
651.99,1.325
652.332,1.34
652.673,1.354
653.015,1.369
653.357,1.384
653.698,1.399
654.04,1.414
654.382,1.43
654.723,1.445
655.065,1.461
655.406,1.477
655.747,1.492
656.089,1.508
656.43,1.524
656.771,1.54
657.112,1.555
657.453,1.572
657.794,1.588
658.135,1.604
658.476,1.62
658.817,1.635
659.158,1.651
659.499,1.666
659.84,1.681
660.181,1.695
660.521,1.71
660.862,1.724
661.202,1.737
661.543,1.75
661.883,1.763
662.224,1.775
662.564,1.787
662.905,1.798
663.245,1.809
663.585,1.82
663.925,1.83
664.266,1.84
664.606,1.85
664.946,1.858
665.286,1.866
665.626,1.874
665.966,1.881
666.306,1.888
666.645,1.894
666.985,1.9
667.325,1.905
667.665,1.911
668.004,1.915
668.344,1.92
668.683,1.923
669.023,1.927
669.362,1.93
669.702,1.932
670.041,1.934
670.38,1.936
670.719,1.937
671.059,1.938
671.398,1.938
671.737,1.938
672.076,1.937
672.415,1.936
672.754,1.935
673.093,1.933
673.432,1.931
673.77,1.929
674.109,1.926
674.448,1.923
674.787,1.92
675.125,1.916
675.464,1.912
675.802,1.907
676.141,1.902
676.479,1.897
676.818,1.892
677.156,1.887
677.494,1.881
677.832,1.874
678.171,1.868
678.509,1.861
678.847,1.854
679.185,1.846
679.523,1.839
679.861,1.831
680.199,1.823
680.536,1.815
680.874,1.807
681.212,1.798
681.55,1.789
681.887,1.78
682.225,1.77
682.562,1.761
682.9,1.752
683.237,1.742
683.575,1.732
683.912,1.722
684.249,1.712
684.587,1.702
684.924,1.692
685.261,1.682
685.598,1.673
685.935,1.663
686.272,1.653
686.609,1.643
686.946,1.633
687.283,1.623
687.62,1.614
687.957,1.604
688.293,1.594
688.63,1.584
688.967,1.575
689.303,1.565
689.64,1.555
689.976,1.546
690.313,1.537
690.649,1.528
690.985,1.519
691.322,1.51
691.658,1.501
691.994,1.492
692.33,1.484
692.666,1.476
693.002,1.468
693.338,1.46
693.674,1.452
694.01,1.445
694.346,1.437
694.682,1.43
695.018,1.423
695.353,1.416
695.689,1.409
696.025,1.403
696.36,1.397
696.696,1.391
697.031,1.385
697.366,1.38
697.702,1.374
698.037,1.369
698.372,1.365
698.708,1.36
699.043,1.356
699.378,1.352
699.713,1.348
700.048,1.344
700.383,1.341
700.718,1.338
701.053,1.335
701.388,1.333
701.722,1.33
702.057,1.329
702.392,1.327
702.726,1.326
703.061,1.325
703.395,1.324
703.73,1.323
704.064,1.323
704.399,1.323
704.733,1.323
705.067,1.324
705.402,1.325
705.736,1.326
706.07,1.327
706.404,1.329
706.738,1.331
707.072,1.334
707.406,1.337
707.74,1.34
708.074,1.344
708.408,1.348
708.741,1.352
709.075,1.356
709.409,1.361
709.742,1.366
710.076,1.372
710.409,1.377
710.743,1.384
711.076,1.39
711.409,1.397
711.743,1.404
712.076,1.411
712.409,1.419
712.742,1.427
713.075,1.435
713.409,1.443
713.742,1.452
714.075,1.461
714.407,1.47
714.74,1.48
715.073,1.489
715.406,1.499
715.739,1.509
716.071,1.52
716.404,1.531
716.736,1.542
717.069,1.554
717.401,1.566
717.734,1.578
718.066,1.59
718.399,1.603
718.731,1.615
719.063,1.628
719.395,1.641
719.727,1.655
720.059,1.668
720.391,1.682
720.723,1.695
721.055,1.709
721.387,1.722
721.719,1.736
722.051,1.75
722.383,1.764
722.714,1.778
723.046,1.792
723.377,1.806
723.709,1.819
724.04,1.833
724.372,1.847
724.703,1.86
725.035,1.873
725.366,1.886
725.697,1.899
726.028,1.912
726.359,1.924
726.691,1.936
727.022,1.949
727.353,1.961
727.683,1.973
728.014,1.984
728.345,1.995
728.676,2.005
729.007,2.015
729.337,2.025
729.668,2.034
729.999,2.043
730.329,2.051
730.66,2.059
730.99,2.066
731.321,2.074
731.651,2.08
731.981,2.087
732.311,2.094
732.642,2.1
732.972,2.104
733.302,2.11
733.632,2.114
733.962,2.119
734.292,2.123
734.622,2.126
734.952,2.131
735.281,2.134
735.611,2.137
735.941,2.139
736.271,2.141
736.6,2.143
736.93,2.146
737.259,2.148
737.589,2.149
737.918,2.151
738.247,2.151
738.577,2.152
738.906,2.152
739.235,2.154
739.564,2.154
739.893,2.154
740.222,2.154
740.551,2.153
740.88,2.152
741.209,2.151
741.538,2.15
741.867,2.149
742.196,2.148
742.524,2.146
742.853,2.143
743.182,2.141
743.51,2.138
743.839,2.135
744.167,2.132
744.496,2.129
744.824,2.125
745.152,2.121
745.481,2.116
745.809,2.111
746.137,2.106
746.465,2.1
746.793,2.094
747.121,2.087
747.449,2.08
747.777,2.072
748.105,2.063
748.433,2.054
748.76,2.044
749.088,2.034
749.416,2.023
749.743,2.01
750.071,1.997
750.399,1.983
750.726,1.968
751.053,1.954
751.381,1.939
751.708,1.923
752.035,1.907
752.363,1.89
752.69,1.872
753.017,1.853
753.344,1.834
753.671,1.814
753.998,1.794
754.325,1.774
754.652,1.752
754.978,1.732
755.305,1.71
755.632,1.688
755.959,1.666
756.285,1.644
756.612,1.621
756.938,1.599
757.265,1.577
757.591,1.554
757.917,1.531
758.244,1.509
758.57,1.486
758.896,1.464
759.222,1.442
759.549,1.42
759.875,1.398
760.201,1.377
760.527,1.355
760.852,1.334
761.178,1.312
761.504,1.292
761.83,1.271
762.156,1.251
762.481,1.231
762.807,1.211
763.132,1.192
763.458,1.173
763.783,1.154
764.109,1.136
764.434,1.118
764.76,1.1
765.085,1.082
765.41,1.065
765.735,1.048
766.06,1.032
766.385,1.016
766.71,1
767.035,0.984
767.36,0.969
767.685,0.954
768.01,0.939
768.335,0.924
768.659,0.91
768.984,0.897
769.309,0.883
769.633,0.87
769.958,0.857
770.282,0.844
770.606,0.832
770.931,0.82
771.255,0.808
771.579,0.797
771.904,0.785
772.228,0.774
772.552,0.763
772.876,0.753
773.2,0.742
773.524,0.732
773.848,0.722
774.172,0.713
774.495,0.703
774.819,0.694
775.143,0.685
775.467,0.676
775.79,0.667
776.114,0.659
776.437,0.651
776.761,0.643
777.084,0.635
777.407,0.628
777.731,0.62
778.054,0.613
778.377,0.605
778.7,0.598
779.023,0.591
779.346,0.584
779.669,0.577
779.992,0.571
780.315,0.564
780.638,0.558
780.961,0.552
781.284,0.546
781.606,0.54
781.929,0.534
782.251,0.529
782.574,0.523
782.896,0.518
783.219,0.512
783.541,0.507
783.864,0.502
784.186,0.497
784.508,0.492
784.83,0.487
785.152,0.483
785.475,0.478
785.797,0.474
786.119,0.469
786.44,0.465
786.762,0.461
787.084,0.458
787.406,0.454
787.728,0.45
788.049,0.446
788.371,0.442
788.693,0.439
789.014,0.435
789.336,0.432
789.657,0.429
789.978,0.425
790.3,0.422
790.621,0.419
790.942,0.417
791.263,0.414
791.584,0.411
791.906,0.409
792.227,0.406
792.547,0.403
792.868,0.401
793.189,0.398
793.51,0.396
793.831,0.393
794.152,0.391
794.472,0.389
794.793,0.386
795.113,0.384
795.434,0.382
795.754,0.38
796.075,0.378
796.395,0.376
796.715,0.374
797.036,0.372
797.356,0.37
797.676,0.368
797.996,0.366
798.316,0.364
798.636,0.363
798.956,0.361
799.276,0.36
799.596,0.358
799.916,0.356
800.235,0.355
800.555,0.353
800.875,0.351
801.194,0.35
801.514,0.349
801.833,0.347
802.153,0.346
802.472,0.344
802.791,0.343
803.111,0.341
803.43,0.34
803.749,0.338
804.068,0.336
804.387,0.335
804.706,0.333
805.025,0.331
805.344,0.33
805.663,0.329
805.982,0.328
806.301,0.326
806.62,0.325
806.938,0.324
807.257,0.323
807.575,0.322
807.894,0.321
808.212,0.32
808.531,0.319
808.849,0.318
809.167,0.317
809.486,0.315
809.804,0.314
810.122,0.314
810.44,0.313
810.758,0.312
811.076,0.311
811.394,0.31
811.712,0.308
812.03,0.307
812.348,0.305
812.666,0.304
812.983,0.303
813.301,0.302
813.618,0.301
813.936,0.3
814.253,0.3
814.571,0.299
814.888,0.298
815.206,0.297
815.523,0.296
815.84,0.295
816.157,0.295
816.475,0.294
816.792,0.294
817.109,0.293
817.426,0.293
817.743,0.292
818.059,0.292
818.376,0.291
818.693,0.291
819.01,0.29
819.326,0.289
819.643,0.288
819.96,0.288
820.276,0.287
820.593,0.287
820.909,0.286
821.225,0.286
821.542,0.285
821.858,0.284
822.174,0.284
822.49,0.284
822.806,0.283
823.122,0.282
823.438,0.282
823.754,0.281
824.07,0.28
824.386,0.279
824.702,0.279
825.018,0.279
825.333,0.279
825.649,0.278
825.965,0.278
826.28,0.278
826.596,0.277
826.911,0.276
827.226,0.276
827.542,0.275
827.857,0.274
828.172,0.274
828.487,0.273
828.803,0.272
829.118,0.272
829.433,0.271
829.748,0.271
830.063,0.27
830.377,0.269
830.692,0.268
831.007,0.268
831.322,0.268
831.636,0.268
831.951,0.267
832.266,0.267
832.58,0.267
832.895,0.266
833.209,0.266
833.523,0.266
833.838,0.266
834.152,0.265
834.466,0.265
834.78,0.265
835.094,0.265
835.408,0.265
835.722,0.264
836.036,0.264
836.35,0.263
836.664,0.263
836.978,0.263
837.291,0.262
837.605,0.262
837.919,0.262
838.232,0.261
838.546,0.261
838.859,0.261
839.173,0.261
839.486,0.261
839.799,0.261
840.113,0.261
840.426,0.261
840.739,0.261
841.052,0.261
841.365,0.261
841.678,0.261
841.991,0.261
842.304,0.261
842.617,0.261
842.93,0.261
843.243,0.261
843.555,0.261
843.868,0.26
844.18,0.26
844.493,0.26
844.805,0.26
845.118,0.26
845.43,0.26
845.743,0.26
846.055,0.26
846.367,0.26
846.679,0.26
846.991,0.259
847.303,0.259
847.615,0.259
847.927,0.259
848.239,0.259
848.551,0.26
848.863,0.26
849.175,0.26
849.486,0.26
849.798,0.26
850.11,0.26
850.421,0.26
850.733,0.261
851.044,0.261
851.356,0.261
851.667,0.261
851.978,0.261
852.289,0.261
852.601,0.26
852.912,0.26
853.223,0.26
853.534,0.26
853.845,0.26
854.156,0.26
854.467,0.26
854.777,0.26
855.088,0.26
855.399,0.26
855.71,0.26
856.02,0.26
856.331,0.26
856.641,0.26
856.952,0.259
857.262,0.259
857.573,0.259
857.883,0.259
858.193,0.258
858.503,0.258
858.813,0.257
859.123,0.256
859.434,0.256
859.743,0.256
860.053,0.255
860.363,0.255
860.673,0.255
860.983,0.255
861.293,0.255
861.602,0.255
861.912,0.255
862.221,0.255
862.531,0.254
862.84,0.254
863.15,0.254
863.459,0.254
863.769,0.254
864.078,0.254
864.387,0.253
864.696,0.253
865.005,0.253
865.314,0.253
865.623,0.254
865.932,0.253
866.241,0.253
866.55,0.254
866.859,0.254
867.167,0.254
867.476,0.254
867.785,0.254
868.093,0.254
868.402,0.254
868.71,0.254
869.019,0.254
869.327,0.255
869.635,0.255
869.944,0.255
870.252,0.255
870.56,0.256
870.868,0.256
871.176,0.257
871.484,0.257
871.792,0.258
872.1,0.258
872.408,0.258
872.715,0.258
873.023,0.259
873.331,0.259
873.638,0.259
873.946,0.259
874.254,0.259
874.561,0.259
874.868,0.259
875.176,0.26
875.483,0.26
875.79,0.26
876.098,0.26
876.405,0.26
876.712,0.26
877.019,0.261
877.326,0.261
877.633,0.261
877.94,0.261
878.246,0.261
878.553,0.261
878.86,0.261
879.167,0.261
879.473,0.261
879.78,0.261
880.086,0.261
880.393,0.261
880.699,0.262
881.006,0.262
881.312,0.262
881.618,0.262
881.924,0.261
882.23,0.261
882.537,0.262
882.843,0.261
883.149,0.261
883.455,0.261
883.76,0.26
884.066,0.26
884.372,0.26
884.678,0.259
884.983,0.259
885.289,0.259
885.595,0.259
885.9,0.259
886.206,0.258
886.511,0.259
886.816,0.259
887.122,0.259
887.427,0.259
887.732,0.259
888.037,0.259
888.342,0.258
888.647,0.258
888.952,0.259
889.257,0.259
889.562,0.258
889.867,0.258
890.172,0.258
890.476,0.258
890.781,0.258
891.086,0.258
891.39,0.258
891.695,0.258
891.999,0.258
892.304,0.257
892.608,0.257
892.912,0.256
893.217,0.256
893.521,0.255
893.825,0.255
894.129,0.254
894.433,0.255
894.737,0.255
895.041,0.255
895.345,0.255
895.649,0.255
895.952,0.255
896.256,0.255
896.56,0.255
896.863,0.255
897.167,0.255
897.47,0.255
897.774,0.255
898.077,0.255
898.38,0.255
898.684,0.254
898.987,0.254
899.29,0.254
899.593,0.254
899.896,0.254
900.199,0.254
900.502,0.254
900.805,0.254
901.108,0.254
901.411,0.253
901.714,0.253
902.016,0.252
902.319,0.252
902.622,0.253
902.924,0.253
903.227,0.253
903.529,0.254
903.831,0.254
904.134,0.254
904.436,0.254
904.738,0.254
905.04,0.254
905.343,0.255
905.645,0.255
905.947,0.256
906.249,0.256
906.55,0.256
906.852,0.256
907.154,0.256
907.456,0.256
907.758,0.256
908.059,0.256
908.361,0.256
908.662,0.256
908.964,0.256
909.265,0.256
909.567,0.256
909.868,0.256
910.169,0.256
910.47,0.256
910.771,0.256
911.073,0.255
911.374,0.255
911.675,0.254
911.975,0.254
912.276,0.253
912.577,0.253
912.878,0.253
913.179,0.253
913.479,0.253
913.78,0.253
914.081,0.253
914.381,0.254
914.682,0.254
914.982,0.254
915.282,0.254
915.583,0.253
915.883,0.252
916.183,0.252
916.483,0.251
916.783,0.251
917.083,0.25
917.383,0.25
917.683,0.25
917.983,0.249
918.283,0.249
918.583,0.249
918.882,0.248
919.182,0.248
919.482,0.248
919.781,0.248
920.081,0.248
920.38,0.248
920.679,0.248
920.979,0.248
921.278,0.248
921.577,0.248
921.876,0.248
922.175,0.248
922.475,0.248
922.774,0.249
923.073,0.249
923.371,0.249
923.67,0.25
923.969,0.251
924.268,0.251
924.566,0.252
924.865,0.253
925.164,0.253
925.462,0.254
925.761,0.254
926.059,0.254
926.357,0.255
926.656,0.254
926.954,0.254
927.252,0.254
927.55,0.254
927.848,0.255
928.146,0.255
928.444,0.256
928.742,0.257
929.04,0.258
929.338,0.259
929.636,0.259
929.934,0.26
930.231,0.261
930.529,0.261
930.826,0.262
931.124,0.263
931.421,0.264
931.719,0.265
932.016,0.266
932.313,0.268
932.611,0.269
932.908,0.27
933.205,0.271
933.502,0.272
933.799,0.273
934.096,0.274
934.393,0.275
934.69,0.276
934.986,0.276
935.283,0.278
935.58,0.279
935.877,0.28
936.173,0.281
936.47,0.281
936.766,0.282
937.063,0.283
937.359,0.283
937.655,0.284
937.951,0.285
938.248,0.287
938.544,0.289
938.84,0.29
939.136,0.291
939.432,0.292
939.728,0.295
940.024,0.296
940.32,0.298
940.615,0.301
940.911,0.302
941.207,0.304
941.502,0.306
941.798,0.308
942.093,0.309
942.389,0.311
942.684,0.312
942.98,0.313
943.275,0.314
943.57,0.315
943.865,0.316
944.16,0.317
944.455,0.318
944.75,0.319
945.045,0.319
945.34,0.319
945.635,0.319
945.93,0.317
946.225,0.316
946.519,0.313
946.814,0.311
947.109,0.309
947.403,0.307
947.698,0.306
947.992,0.304
948.286,0.303
948.581,0.301
948.875,0.301
949.169,0.3
949.463,0.301
949.757,0.3
950.051,0.3
950.345,0.299
950.639,0.297
950.933,0.296
951.227,0.295
951.521,0.294
951.814,0.292
952.108,0.289
952.402,0.287
952.695,0.286
952.989,0.285
953.282,0.282
953.575,0.282
953.869,0.281
954.162,0.281
954.455,0.281
954.748,0.279
955.042,0.277
955.335,0.276
955.628,0.275
955.921,0.275
956.213,0.275
956.506,0.274
956.799,0.275
957.092,0.276
957.384,0.275
957.677,0.275
957.97,0.275
958.262,0.275
958.555,0.276
958.847,0.276
959.139,0.278
959.432,0.278
959.724,0.278
960.016,0.279
960.308,0.278
960.6,0.28
960.892,0.279
961.184,0.279
961.476,0.28
961.768,0.281
962.06,0.28
962.352,0.282
962.643,0.282
962.935,0.282
963.226,0.283
963.518,0.282
963.809,0.283
964.101,0.285
964.392,0.285
964.683,0.287
964.975,0.287
965.266,0.29
965.557,0.29
965.848,0.291
966.139,0.294
966.43,0.294
966.721,0.295
967.012,0.297
967.303,0.298
967.594,0.299
967.884,0.301
968.175,0.302
968.465,0.304
968.756,0.304
969.046,0.304
969.337,0.305
969.627,0.307
969.918,0.308
970.208,0.309
970.498,0.311
970.788,0.311
971.078,0.31
971.368,0.312
971.658,0.314
971.948,0.313
972.238,0.315
972.528,0.316
972.818,0.317
973.107,0.319
973.397,0.32
973.687,0.321
973.976,0.322
974.266,0.324
974.555,0.326
974.845,0.329
975.134,0.331
975.423,0.336
975.712,0.339
976.002,0.343
976.291,0.346
976.58,0.348
976.869,0.353
977.158,0.355
977.447,0.359
977.735,0.361
978.024,0.362
978.313,0.366
978.602,0.369
978.89,0.372
979.179,0.374
979.467,0.379
979.756,0.383
980.044,0.387
980.332,0.39
980.621,0.393
980.909,0.399
981.197,0.399
981.485,0.401
981.773,0.405
982.061,0.412
982.349,0.414
982.637,0.42
982.925,0.422
983.213,0.426
983.501,0.426
983.788,0.434
984.076,0.443
984.363,0.452
984.651,0.463
984.938,0.467
985.226,0.473
985.513,0.481
985.8,0.488
986.088,0.496
986.375,0.508
986.662,0.517
986.949,0.524
987.236,0.528
987.523,0.539
987.81,0.546
988.097,0.555
988.384,0.562
988.67,0.568
988.957,0.577
989.244,0.587
989.53,0.592
989.817,0.595
990.103,0.598
990.39,0.613
990.676,0.624
990.962,0.631
991.248,0.623
991.535,0.629
991.821,0.638
992.107,0.652
992.393,0.67
992.679,0.681
992.965,0.71
993.251,0.731
993.536,0.741
993.822,0.738
994.108,0.76
994.393,0.78
994.679,0.825
994.964,0.851
995.25,0.884
995.535,0.877
995.821,0.884
996.106,0.883
996.391,0.867
996.676,0.902
996.962,0.908
997.247,0.937
997.532,0.961
997.817,0.968
998.102,0.977
998.386,0.979
998.671,0.996
998.956,1.046
999.241,1.049
999.525,1.068
999.81,1.099
1000.094,1.124
1000.379,1.17
1000.663,1.182
1000.948,1.198
1001.232,1.313
1001.516,1.361
1001.8,1.457
1002.084,1.404
1002.369,1.389
1002.653,1.7
1002.936,2.041
1003.22,0
1003.504,4.217
1003.788,0
1004.072,0
1004.355,0
1004.639,0
1004.923,0
1005.206,0
1005.49,0
1005.773,0
1006.056,0
1006.34,0
1006.623,0
1006.906,0
1007.189,0
1007.472,0
1007.755,0
1008.038,0
1008.321,0
1008.604,0
1008.887,0
1009.17,0
1009.452,0
1009.735,0
1010.017,0
1010.3,0
1010.582,0
1010.865,0
1011.147,0
1011.429,0
1011.712,0
1011.994,0
1012.276,0
1012.558,0
1012.84,0
1013.122,0
1013.404,0
1013.686,0
1013.968,0
1014.249,0
1014.531,0
1014.813,0
1015.094,0
1015.376,0
1015.657,0
1015.939,0
1016.22,0
1016.501,0
1016.782,0
1017.064,0
1017.345,0
1017.626,0
1017.907,0
1018.188,0
1018.469,0
1018.749,0
1019.03,0
1019.311,0
1019.592,0
1019.872,0
1020.153,0
1020.433,0
1020.714,0
1020.994,0
1021.274,0
1021.555,0
